#Wavelength[Angstrom]  Flux[Flux per Angstrom]
3541.54         44.72435
3542.54         260.2435
3543.54         329.8195
3544.54         325.5148
3545.54         332.0099
3546.54         323.8926
3547.54         307.8616
3548.54         306.8736
3549.54         318.0973
3550.54         309.9836
3551.54         304.7438
3552.54         302.7354
3553.54         303.6017
3554.54         291.3328
3555.54         296.0345
3556.54         311.1873
3557.54          298.752
3558.54         276.9156
3559.54         276.5334
3560.54         291.7172
3561.54           289.93
3562.54         278.4654
3563.54          264.977
3564.54         262.4899
3565.54         263.6055
3566.54         259.4822
3567.54         243.9232
3568.54         233.1199
3569.54         222.5754
3570.54         214.6614
3571.54         217.1454
3572.54         242.6863
3573.54         254.8106
3574.54         247.3293
3575.54         245.5513
3576.54         248.0471
3577.54          244.646
3578.54         236.5193
3579.54         227.1853
3580.54         219.4733
3581.54         212.5474
3582.54         193.3972
3583.54         171.9394
3584.54         170.5844
3585.54         192.9226
3586.54         200.0451
3587.54         193.2373
3588.54         217.9666
3589.54         243.1302
3590.54         250.1896
3591.54         267.0063
3592.54         280.7558
3593.54         291.9724
3594.54         309.7411
3595.54          328.821
3596.54         340.2603
3597.54          365.687
3598.54         383.6826
3599.54         374.4484
3600.54          360.745
3601.54          355.114
3602.54         354.8573
3603.54         341.8246
3604.54         321.9403
3605.54           308.52
3606.54          289.217
3607.54         279.4007
3608.54         280.5387
3609.54         273.7187
3610.54         278.1431
3611.54         297.7227
3612.54         312.5239
3613.54         310.8054
3614.54         307.1565
3615.54         319.6235
3616.54         319.3515
3617.54         306.6072
3618.54         290.7863
3619.54         290.0162
3620.54         312.6557
3621.54          310.783
3622.54         319.2102
3623.54          333.977
3624.54         341.9025
3625.54         375.2739
3626.54         392.4319
3627.54         389.1718
3628.54         392.8624
3629.54         391.9194
3630.54          375.407
3631.54          346.423
3632.54         334.1873
3633.54         331.5155
3634.54         332.4221
3635.54         336.3964
3636.54         350.0149
3637.54         359.5937
3638.54         370.9605
3639.54         394.2343
3640.54         406.8853
3641.54          395.261
3642.54         378.0087
3643.54         385.0732
3644.54         380.1869
3645.54         357.3369
3646.54         341.1152
3647.54         329.6688
3648.54         326.3757
3649.54         328.1057
3650.54         330.3255
3651.54         338.8519
3652.54         363.5363
3653.54         384.5708
3654.54         402.4807
3655.54         426.5705
3656.54         444.1702
3657.54         457.1496
3658.54         458.6058
3659.54         461.6004
3660.54         476.6998
3661.54         488.0653
3662.54         479.6386
3663.54         462.3198
3664.54         453.9217
3665.54         448.5338
3666.54         442.3544
3667.54         441.5462
3668.54         425.9852
3669.54         430.2684
3670.54         429.3498
3671.54         435.5826
3672.54         440.0955
3673.54         439.2378
3674.54          436.008
3675.54         432.8498
3676.54         421.3656
3677.54          419.658
3678.54         400.6584
3679.54         377.4108
3680.54         386.6874
3681.54         391.0715
3682.54         378.6856
3683.54         374.1381
3684.54          375.058
3685.54         376.5006
3686.54         389.9021
3687.54         375.0818
3688.54         372.3017
3689.54         380.0156
3690.54          391.679
3691.54         410.1722
3692.54         420.6718
3693.54         432.7396
3694.54         457.6638
3695.54         466.4654
3696.54         453.2263
3697.54         447.9796
3698.54         454.7477
3699.54         458.1125
3700.54         463.5488
3701.54         456.2813
3702.54         444.9074
3703.54         429.2304
3704.54         407.1711
3705.54         382.4141
3706.54          360.141
3707.54         353.7219
3708.54         340.6197
3709.54         357.9376
3710.54         385.5704
3711.54         406.1721
3712.54         424.2828
3713.54         439.7777
3714.54         453.6838
3715.54         452.4768
3716.54         446.1496
3717.54         425.7093
3718.54         403.9795
3719.54         373.3596
3720.54         334.7668
3721.54         318.4909
3722.54         312.3352
3723.54         308.1914
3724.54         315.6072
3725.54          335.688
3726.54         349.2957
3727.54         347.8892
3728.54         350.4671
3729.54         357.4395
3730.54         352.1923
3731.54         333.4479
3732.54         309.7489
3733.54         295.6684
3734.54         279.5434
3735.54         255.8741
3736.54         252.2386
3737.54         266.6891
3738.54         282.0992
3739.54         290.1791
3740.54         300.5624
3741.54         307.2785
3742.54         313.7363
3743.54         311.7589
3744.54         304.5807
3745.54         297.9302
3746.54         273.8246
3747.54         257.7596
3748.54         255.9789
3749.54         260.5137
3750.54         280.8464
3751.54           294.62
3752.54         309.8861
3753.54         329.2806
3754.54         343.7845
3755.54          356.459
3756.54         364.2565
3757.54         361.1641
3758.54         359.7475
3759.54         349.4002
3760.54         333.2514
3761.54         329.1978
3762.54         329.6995
3763.54         325.7666
3764.54         318.1484
3765.54         322.3487
3766.54         336.6295
3767.54         345.1537
3768.54         347.7256
3769.54         358.0703
3770.54         380.0438
3771.54         383.4332
3772.54         386.0946
3773.54         397.0545
3774.54         402.0081
3775.54          407.359
3776.54         413.9911
3777.54         420.6276
3778.54         417.7309
3779.54         420.8397
3780.54         439.9977
3781.54         449.4359
3782.54         446.1786
3783.54         433.0107
3784.54         419.3996
3785.54         406.3379
3786.54         397.6997
3787.54         389.3017
3788.54         364.0369
3789.54          353.128
3790.54         347.5052
3791.54         337.6625
3792.54         332.0332
3793.54         323.2502
3794.54          318.253
3795.54         312.6074
3796.54         311.0256
3797.54         313.7038
3798.54         308.3957
3799.54         312.5449
3800.54         316.7413
3801.54         321.2656
3802.54         337.0059
3803.54          361.604
3804.54         360.0908
3805.54         363.5783
3806.54         374.3867
3807.54         359.8494
3808.54         352.6938
3809.54         351.8789
3810.54         350.2664
3811.54         354.4877
3812.54         355.3893
3813.54         342.8503
3814.54         332.7409
3815.54         323.5092
3816.54         293.6847
3817.54          276.374
3818.54         277.2693
3819.54         267.2578
3820.54         262.5467
3821.54          259.485
3822.54         247.4949
3823.54         241.2543
3824.54         233.2139
3825.54         227.2092
3826.54           234.59
3827.54         235.2344
3828.54          229.946
3829.54         231.4366
3830.54         230.5664
3831.54         221.1084
3832.54         216.5066
3833.54         195.1315
3834.54         186.0944
3835.54           200.94
3836.54          221.152
3837.54         222.1421
3838.54         228.4049
3839.54         238.7101
3840.54         243.2814
3841.54         251.9588
3842.54         264.0509
3843.54         276.1005
3844.54         280.6454
3845.54         283.4611
3846.54         296.1082
3847.54         304.8626
3848.54         298.3062
3849.54          292.312
3850.54         297.7392
3851.54         301.4898
3852.54         287.6332
3853.54         285.6451
3854.54           290.69
3855.54         292.3372
3856.54         277.7467
3857.54          261.973
3858.54         258.5953
3859.54         262.1639
3860.54         272.1847
3861.54         278.0828
3862.54         276.4877
3863.54         292.0224
3864.54         301.9793
3865.54         301.6308
3866.54         309.2464
3867.54         303.6753
3868.54         300.3424
3869.54         295.9017
3870.54         291.1894
3871.54         291.4187
3872.54         304.6695
3873.54         309.2191
3874.54         301.0163
3875.54         305.9822
3876.54         315.0174
3877.54         310.6366
3878.54         314.2308
3879.54         318.3905
3880.54          308.662
3881.54         303.2576
3882.54         302.8799
3883.54         306.1765
3884.54         317.7427
3885.54          328.302
3886.54         328.1799
3887.54         339.8431
3888.54         356.1668
3889.54         369.5528
3890.54         401.8824
3891.54         425.7896
3892.54         431.4311
3893.54         441.5521
3894.54         454.8577
3895.54         459.2622
3896.54         450.2142
3897.54          442.876
3898.54         450.3822
3899.54         451.0333
3900.54         459.1514
3901.54         462.7613
3902.54         454.8029
3903.54         440.5974
3904.54         446.9661
3905.54         446.4085
3906.54         448.6541
3907.54         466.2432
3908.54         467.8687
3909.54         491.8661
3910.54         521.3939
3911.54         523.4321
3912.54         532.0599
3913.54          542.899
3914.54          546.543
3915.54         545.6883
3916.54         549.0624
3917.54         534.6122
3918.54         510.3436
3919.54          490.279
3920.54         479.7418
3921.54         461.5313
3922.54         448.7227
3923.54         437.4164
3924.54         426.3776
3925.54         414.4237
3926.54         395.0511
3927.54         372.9578
3928.54         338.8555
3929.54         301.5798
3930.54         278.3484
3931.54         252.4379
3932.54         222.3096
3933.54         200.4127
3934.54         195.4685
3935.54         203.8819
3936.54         219.6896
3937.54         241.0831
3938.54         265.6347
3939.54         295.8913
3940.54         323.0989
3941.54         346.4821
3942.54         361.6548
3943.54          381.094
3944.54         403.9377
3945.54         414.8154
3946.54         425.2773
3947.54         448.0622
3948.54         473.1494
3949.54         492.7351
3950.54         509.7122
3951.54         532.2181
3952.54         543.5027
3953.54         550.9498
3954.54         551.5953
3955.54         550.3432
3956.54         540.3106
3957.54         518.3852
3958.54          496.379
3959.54          467.782
3960.54         433.4015
3961.54         402.3376
3962.54         373.7068
3963.54         343.0465
3964.54         308.7964
3965.54         279.5534
3966.54         255.3943
3967.54         237.1917
3968.54          224.125
3969.54         229.7924
3970.54         238.0954
3971.54         252.4113
3972.54         285.2864
3973.54         324.3184
3974.54         365.4935
3975.54         411.8289
3976.54         460.4158
3977.54         507.4059
3978.54         544.6097
3979.54         575.0566
3980.54         594.2318
3981.54          606.821
3982.54         624.9591
3983.54         642.7112
3984.54         644.5674
3985.54         641.4354
3986.54         651.6687
3987.54         660.7553
3988.54         673.6635
3989.54         677.5678
3990.54         681.3726
3991.54         679.6823
3992.54         684.2596
3993.54         695.3231
3994.54         705.9077
3995.54         701.6692
3996.54         705.5956
3997.54         705.7242
3998.54         702.0276
3999.54         713.1442
4000.54         726.3633
4001.54         733.4334
4002.54         741.9424
4003.54         752.1851
4004.54         745.4744
4005.54         724.9507
4006.54         720.9697
4007.54          719.079
4008.54         714.2536
4009.54         733.3836
4010.54          766.644
4011.54          785.394
4012.54          796.497
4013.54         792.7867
4014.54         794.1367
4015.54         798.8105
4016.54         797.1202
4017.54         796.9899
4018.54         801.3785
4019.54         812.2401
4020.54         815.8425
4021.54         809.3959
4022.54         799.6752
4023.54         794.3529
4024.54         805.2234
4025.54          805.579
4026.54         789.3528
4027.54         786.8503
4028.54           789.51
4029.54         763.2864
4030.54         737.1793
4031.54         712.7853
4032.54         678.9924
4033.54         663.7982
4034.54         661.8098
4035.54         694.3899
4036.54          729.921
4037.54         750.4402
4038.54         773.7068
4039.54         790.1133
4040.54         799.7068
4041.54         803.9171
4042.54         790.8884
4043.54         766.9494
4044.54         737.3232
4045.54         710.8726
4046.54          700.502
4047.54         692.7502
4048.54         705.4714
4049.54         742.0717
4050.54         765.1771
4051.54          777.429
4052.54         802.8323
4053.54         808.3873
4054.54         790.9366
4055.54         765.9246
4056.54         743.3286
4057.54         723.1918
4058.54         706.5369
4059.54         714.5897
4060.54         712.7473
4061.54         701.8445
4062.54         683.9749
4063.54         683.7479
4064.54         687.2111
4065.54         670.5277
4066.54         675.1674
4067.54          687.743
4068.54         698.7925
4069.54         715.4767
4070.54         716.6079
4071.54         720.4476
4072.54         725.8716
4073.54         721.2316
4074.54         708.0414
4075.54         690.7951
4076.54         683.8127
4077.54         692.3855
4078.54         698.4871
4079.54         711.6519
4080.54         731.9731
4081.54         751.0179
4082.54         777.5209
4083.54         792.8133
4084.54          792.444
4085.54         809.5745
4086.54         821.7418
4087.54           831.85
4088.54         842.4709
4089.54         843.0346
4090.54         853.4205
4091.54         857.2523
4092.54         836.4352
4093.54          815.543
4094.54         796.4553
4095.54         776.3136
4096.54         763.1736
4097.54         747.0614
4098.54         715.8044
4099.54         693.9113
4100.54          685.687
4101.54         692.4407
4102.54          686.423
4103.54         690.0863
4104.54         707.6419
4105.54         721.5524
4106.54         741.9656
4107.54         758.7098
4108.54         771.7886
4109.54          771.157
4110.54         757.2845
4111.54         749.2004
4112.54         750.9333
4113.54         747.3719
4114.54          747.681
4115.54         740.7642
4116.54         744.5291
4117.54         757.7329
4118.54         758.6552
4119.54         745.1517
4120.54         739.1549
4121.54         734.9188
4122.54         726.1036
4123.54         729.7173
4124.54         733.5042
4125.54         734.1612
4126.54          733.181
4127.54         727.2961
4128.54         723.3088
4129.54         706.6968
4130.54         686.8892
4131.54         677.7341
4132.54          671.345
4133.54         660.4802
4134.54         669.0671
4135.54         700.9554
4136.54         713.9771
4137.54          720.304
4138.54         723.6083
4139.54         713.6106
4140.54          697.636
4141.54         680.0825
4142.54         666.4802
4143.54         650.5306
4144.54         637.1285
4145.54         626.5021
4146.54         625.5112
4147.54         628.8165
4148.54         635.7377
4149.54         633.7316
4150.54         625.7104
4151.54         615.9579
4152.54         617.8778
4153.54         627.4083
4154.54         623.6066
4155.54         615.9346
4156.54         617.1462
4157.54          630.743
4158.54         643.5017
4159.54         658.6552
4160.54         682.0021
4161.54         699.4348
4162.54         707.0221
4163.54         705.8483
4164.54         701.5829
4165.54         691.0954
4166.54         685.9064
4167.54         675.7286
4168.54         666.5309
4169.54         668.8735
4170.54          654.762
4171.54         647.8541
4172.54         658.4732
4173.54         652.8041
4174.54         647.7692
4175.54         651.8814
4176.54         652.7823
4177.54         653.1354
4178.54         653.3099
4179.54         648.8342
4180.54         639.8263
4181.54         668.6538
4182.54            691.6
4183.54         693.3307
4184.54         696.5826
4185.54          708.348
4186.54         718.1102
4187.54         728.5897
4188.54         729.2138
4189.54         722.4037
4190.54            734.2
4191.54         730.1532
4192.54         714.7406
4193.54         724.8163
4194.54         723.8757
4195.54         711.0821
4196.54         704.7397
4197.54         700.9303
4198.54         697.0924
4199.54         693.4113
4200.54          684.009
4201.54         680.0779
4202.54         693.9783
4203.54         708.4308
4204.54         729.6619
4205.54         753.9269
4206.54         765.1905
4207.54         777.1737
4208.54         774.1693
4209.54         766.8588
4210.54         763.5343
4211.54         764.3467
4212.54         762.6215
4213.54         757.9052
4214.54         760.3396
4215.54         762.0156
4216.54         763.1959
4217.54         791.1282
4218.54         822.9524
4219.54         821.7529
4220.54         831.2003
4221.54         834.0549
4222.54         808.4611
4223.54         771.8516
4224.54         737.9131
4225.54         705.0852
4226.54         674.8329
4227.54         661.1472
4228.54         663.3959
4229.54         691.4459
4230.54         735.2922
4231.54          773.144
4232.54         804.4264
4233.54         819.8354
4234.54         819.9695
4235.54         832.3665
4236.54         839.5483
4237.54         834.4373
4238.54         832.1013
4239.54         843.7544
4240.54         865.4016
4241.54         878.6699
4242.54         893.5186
4243.54         906.9166
4244.54         919.1176
4245.54         925.9695
4246.54         913.6497
4247.54         889.7299
4248.54         873.4262
4249.54         850.6763
4250.54         826.5721
4251.54         803.4083
4252.54         792.9376
4253.54         788.0352
4254.54         795.2913
4255.54          791.288
4256.54         794.8395
4257.54         816.7662
4258.54         822.8154
4259.54         820.2701
4260.54          820.796
4261.54         846.9802
4262.54         876.9342
4263.54         885.2456
4264.54         899.7363
4265.54         916.4918
4266.54         921.5443
4267.54         900.8226
4268.54         866.5883
4269.54         825.8631
4270.54         783.8431
4271.54         745.7728
4272.54          723.544
4273.54         724.2061
4274.54         724.3696
4275.54         740.3418
4276.54         768.4916
4277.54         800.8894
4278.54          838.741
4279.54         856.3928
4280.54         866.6116
4281.54         879.4772
4282.54         872.9389
4283.54         854.7751
4284.54         842.7169
4285.54         826.0369
4286.54         807.3085
4287.54         800.5927
4288.54         784.3304
4289.54         764.0854
4290.54         750.8851
4291.54         749.9528
4292.54         754.3807
4293.54         764.9039
4294.54         772.1992
4295.54         761.8719
4296.54         749.3436
4297.54         735.8997
4298.54         718.3721
4299.54         688.8047
4300.54         665.4207
4301.54         651.5581
4302.54         648.3221
4303.54         634.6607
4304.54         619.0511
4305.54         611.9489
4306.54         610.4291
4307.54          623.543
4308.54         634.2001
4309.54         641.6354
4310.54         675.4696
4311.54          719.282
4312.54         773.5347
4313.54         839.0527
4314.54         887.8058
4315.54         927.2911
4316.54         961.0311
4317.54          995.505
4318.54         1024.726
4319.54         1016.535
4320.54          983.994
4321.54          941.559
4322.54         911.5626
4323.54         893.9547
4324.54         865.0372
4325.54         851.9047
4326.54         866.0187
4327.54         895.1378
4328.54         932.0779
4329.54         972.3138
4330.54         1008.727
4331.54         1052.988
4332.54         1073.441
4333.54          1065.24
4334.54         1048.305
4335.54         1028.452
4336.54         1002.103
4337.54         976.1282
4338.54         945.8476
